# observed_wavelength   fluxdensity    fluxdensity_err  
  8987.074              9.413595       26.366398        
  8987.674              -3.9895067     29.716564        
  8988.274              -27.647738     29.125881        
  8988.874              -1.5393764     27.007896        
  8989.475              -27.770033     36.800705        
  8990.075              -96.08371      66.03011         
  8990.675              -173.43689     77.07173         
  8991.275              -103.74039     51.283993        
  8991.875              -27.474102     28.684662        
  8992.476              10.375407      24.09278         
  8993.075              13.245493      24.052843        
  8993.676              -9.802683      26.643286        
  8994.276              -3.0140615     31.30108         
  8994.876              8.97663        31.710445        
  8995.477              18.480026      27.462261        
  8996.076              22.292404      25.189653        
  8996.677              18.179195      25.257095        
  8997.276              -6.0192795     24.582476        
  8997.877              -5.093566      24.925953        
  8998.477              6.0722146      26.666105        
  8999.077              12.415302      29.467428        
  8999.678              -19.75694      31.253025        
  9000.277              -2.5121784     29.098463        
  9000.878              -6.504658      26.316538        
  9001.478              13.288875      25.468391        
  9002.078              -8.07775       32.723026        
  9002.678              -1.3843364     66.558624        
  9003.278              77.23652       106.436104       
  9003.879              -60.985268     100.94978        
  9004.479              -125.55383     57.683075        
  9005.079              -42.10993      29.480537        
  9005.679              -2.4042733     24.542372        
  9006.279              -12.131303     25.311752        
  9006.879              -31.935978     24.922775        
  9007.4795             0.2898074      24.062897        
  9008.08               -0.24045013    23.895227        
  9008.68               5.394872       23.659525        
  9009.28               38.937103      23.48789         
  9009.88               29.11559       23.432146        
  9010.48               12.977524      23.392733        
  9011.08               22.82361       23.453545        
  9011.681              10.786981      23.491043        
  9012.281              15.720373      23.496952        
  9012.881              34.94849       23.42091         
  9013.481              -17.87019      23.36736         
  9014.081              -35.869156     23.314228        
  9014.682              14.021573      23.227932        
  9015.281              5.1071105      23.260283        
  9015.882              -11.04547      23.206657        
  9016.481              -2.500487      23.166346        
  9017.082              -40.769493     23.22152         
  9017.683              -18.538713     23.217087        
  9018.282              14.167366      22.829882        
  9018.883              -1.6822765     22.641428        
  9019.482              5.498949       22.980766        
  9020.083              -21.48922      23.365984        
  9020.683              -47.410393     23.534336        
  9021.283              -68.73075      23.615889        
  9021.884              -43.377033     24.036228        
  9022.483              -50.24527      26.268465        
  9023.084              -33.608612     28.854027        
  9023.684              21.521397      27.788975        
  9024.284              -1.6089338     24.564905        
  9024.884              -37.386223     23.2539          
  9025.484              -20.773552     23.313206        
  9026.085              -32.857613     23.41234         
  9026.685              -37.990784     23.428501        
  9027.285              -8.092611      23.55304         
  9027.885              35.484474      23.612383        
  9028.485              48.387524      23.641638        
  9029.085              24.578634      24.127083        
  9029.686              -20.83356      25.614674        
  9030.285              -30.352678     27.689196        
  9030.886              -5.7190957     27.792261        
  9031.486              -29.277206     25.761219        
  9032.086              -50.739624     24.66824         
  9032.687              -22.420034     24.458643        
  9033.286              -10.520887     24.476454        
  9033.887              -10.817575     24.762842        
  9034.486              -19.695755     24.263172        
  9035.087              -15.343913     23.620089        
  9035.6875             13.923799      23.558044        
  9036.287              -5.223412      23.509842        
  9036.888              -23.894081     23.56545         
  9037.487              -37.388973     23.723963        
  9038.088              5.8964286      23.808472        
  9038.6875             6.906677       25.317087        
  9039.288              -73.86806      36.80774         
  9039.889              -121.77206     58.593483        
  9040.488              -82.89623      59.759434        
  9041.089              -42.399216     38.80845         
  9041.688              -38.383766     25.879168        
  9042.289              -20.920303     23.971514        
  9042.889              1.5496403      24.637197        
  9043.489              -3.9282088     25.782763        
  9044.09               -17.204807     24.94793         
  9044.689              5.206927       24.65259         
  9045.29               -11.22825      26.749128        
  9045.89               -4.5816355     27.491234        
  9046.49               -39.395363     25.623161        
  9047.09               -30.589369     24.410133        
  9047.69               -35.84874      24.356989        
  9048.29               -38.898758     24.400906        
  9048.891              -5.514666      24.059904        
  9049.491              -3.362734      24.205313        
  9050.091              -15.78753      27.790264        
  9050.691              -17.621418     45.037888        
  9051.291              20.581888      71.20951         
  9051.892              110.95449      77.41133         
  9052.491              117.5531       56.167828        
  9053.092              14.954644      32.738632        
  9053.692              7.302137       25.360945        
  9054.292              52.600822      24.730177        
  9054.893              21.995712      24.402552        
  9055.492              -30.42022      24.30931         
  9056.093              -42.585747     24.650019        
  9056.692              -20.591227     24.453363        
  9057.293              -9.8918915     24.505964        
  9057.894              -3.4100049     25.41808         
  9058.493              4.4088674      26.663378        
  9059.094              4.84413        27.241917        
  9059.693              15.934829      26.117336        
  9060.294              -0.21685266    24.703217        
  9060.894              0.7729358      24.562904        
  9061.494              -10.456133     25.052235        
  9062.095              -24.729536     24.824404        
  9062.694              13.281751      24.318829        
  9063.295              -5.260621      24.305843        
  9063.895              -25.34523      23.996716        
  9064.495              1.6502683      23.68267         
  9065.095              24.726637      24.279324        
  9065.695              5.6577225      26.299034        
  9066.295              -6.0785203     28.298498        
  9066.8955             -15.466499     28.143248        
  9067.496              -50.1693       27.65659         
  9068.096              -43.797764     26.959204        
  9068.696              -3.9636703     25.118317        
  9069.296              29.091135      24.518711        
  9069.896              -20.523323     26.323061        
  9070.496              -18.65086      28.977053        
  9071.097              9.460748       28.05659         
  9071.697              -5.704479      25.606318        
  9072.297              -65.579865     26.684269        
  9072.897              -44.440903     28.049896        
  9073.497              -26.24176      26.288166        
  9074.098              -22.897911     24.340681        
  9074.697              -21.213575     24.132256        
  9075.298              -1.0825553     24.277224        
  9075.898              -8.194885      24.333355        
  9076.498              -54.638954     24.479618        
  9077.099              -65.40326      24.563583        
  9077.698              -19.103868     24.68321         
  9078.299              -44.592445     24.970575        
  9078.898              -86.13466      24.836126        
  9079.499              -28.507809     24.591122        
  9080.1                -2.8558514     24.511694        
  9080.699              18.634918      24.475037        
  9081.3                20.466648      24.539587        
  9081.899              -33.18618      24.544104        
  9082.5                -37.21527      24.73729         
  9083.1                -0.012038453   24.915182        
  9083.7                -2.350935      24.720936        
  9084.3                -8.110081      24.765667        
  9084.9                -21.215815     25.12255         
  9085.501              8.8236265      25.548199        
  9086.101              -5.7302265     25.944063        
  9086.701              -12.832281     26.431631        
  9087.301              -13.69025      26.406498        
  9087.901              -21.886244     25.72925         
  9088.501              -17.109201     25.246336        
  9089.102              8.500361       24.651411        
  9089.702              -18.13272      24.263391        
  9090.302              7.086262       24.214384        
  9090.902              12.488609      24.242876        
  9091.502              -32.76126      24.36886         
  9092.103              -18.337456     25.07651         
  9092.702              18.16304       26.02811         
  9093.303              31.594717      27.373594        
  9093.903              3.9794843      34.567715        
  9094.503              -17.642572     45.454197        
  9095.104              -85.44165      45.14482         
  9095.703              -81.04782      35.13144         
  9096.304              -46.25928      28.308228        
  9096.903              -22.303318     25.547707        
  9097.504              9.48296        24.982449        
  9098.104              5.0540614      25.450443        
  9098.704              10.993871      25.784214        
  9099.305              22.47985       25.928442        
  9099.904              -4.0495486     26.016272        
  9100.505              -5.445605      25.847439        
  9101.1045             -40.42496      25.759666        
  9101.705              -106.78013     25.351173        
  9102.305              -93.21438      24.72266         
  9102.905              -56.422897     25.036022        
  9103.506              -71.35594      29.626997        
  9104.105              -43.680107     43.368122        
  9104.706              -111.130745    55.588566        
  9105.306              -154.28613     53.987926        
  9105.906              -82.69154      40.89276         
  9106.506              -23.300648     29.487337        
  9107.106              -29.570913     26.181305        
  9107.707              -29.972784     25.158907        
  9108.307              -5.2889724     24.898676        
  9108.907              1.2334876      24.802933        
  9109.507              -5.822352      24.79037         
  9110.107              -13.452286     24.992975        
  9110.707              -42.249607     25.27404         
  9111.308              -33.637318     25.412523        
  9111.908              -48.687508     25.568068        
  9112.508              -56.731018     25.702642        
  9113.108              4.232228       25.45476         
  9113.708              10.499098      25.242937        
  9114.309              20.326763      25.30339         
  9114.908              23.216425      25.456484        
  9115.509              -22.281422     25.644844        
  9116.108              -22.851076     25.694769        
  9116.709              -5.7886443     25.887691        
  9117.31               -12.998917     26.92588         
  9117.909              24.61267       27.094885        
  9118.51               23.839296      25.98803         
  9119.109              4.448525       25.481785        
  9119.71               8.286585       25.283854        
  9120.31               -8.040608      25.041864        
  9120.91               10.372878      25.102512        
  9121.511              -0.0988863     25.700687        
  9122.11               -41.298244     25.987131        
  9122.711              -76.97357      25.849297        
  9123.311              -27.559109     25.8407          
  9123.911              19.584396      25.936651        
  9124.511              13.302433      26.077692        
  9125.111              -13.600713     26.197807        
  9125.712              -5.81908       26.27134         
  9126.312              -15.346328     26.139233        
  9126.912              -57.18531      25.882471        
  9127.512              -54.8241       25.981628        
  9128.112              46.199314      26.070002        
  9128.712              55.117393      26.063425        
  9129.3125             33.369423      26.044157        
  9129.913              48.40439       25.931168        
  9130.513              11.571996      25.779974        
  9131.113              -20.430225     25.806412        
  9131.713              13.5985155     25.765762        
  9132.313              -3.0136635     25.63794         
  9132.913              -4.4806304     25.829615        
  9133.514              -14.397595     26.242062        
  9134.113              -21.43074      26.561552        
  9134.714              -41.50507      27.53178         
  9135.314              -46.63833      28.21075         
  9135.914              12.61937       27.839418        
  9136.515              14.933455      27.244156        
  9137.114              -61.021217     26.598526        
  9137.715              -64.88064      26.799475        
  9138.314              -48.249176     27.345581        
  9138.915              -2.616597      27.314177        
  9139.516              16.33652       27.04013         
  9140.115              -12.191134     27.066936        
  9140.716              1.6685885      27.208836        
  9141.315              -18.677103     27.475441        
  9141.916              -30.138044     27.777893        
  9142.516              15.127337      27.525698        
  9143.116              55.07413       27.113968        
  9143.717              26.735884      27.096495        
  9144.316              -31.7581       27.125862        
  9144.917              -1.0178648     27.12168         
  9145.517              19.220352      27.342916        
  9146.117              20.74309       27.591091        
  9146.717              6.4546485      27.865982        
  9147.317              -8.145716      27.90122         
  9147.918              -33.433834     27.688488        
  9148.518              -37.483746     27.640621        
  9149.118              -45.365875     28.059587        
  9149.718              -6.753143      28.837097        
  9150.318              16.525091      29.360176        
  9150.918              -20.147678     28.361412        
  9151.519              -50.947784     27.680056        
  9152.118              -16.90056      27.764845        
  9152.719              45.994476      29.46956         
  9153.319              28.963089      35.831318        
  9153.919              45.36361       43.373074        
  9154.52               57.785404      42.849823        
  9155.119              67.48251       35.783966        
  9155.72               28.234083      30.690052        
  9156.319              -33.44351      29.81703         
  9156.92               -50.085342     29.913614        
  9157.5205             -12.384593     28.59083         
  9158.12               7.167658       28.378496        
  9158.721              -30.3476       30.889376        
  9159.32               -1.0872133     32.066437        
  9159.921              -21.094961     30.105457        
  9160.5205             -36.29338      29.215672        
  9161.121              -5.2451897     30.940008        
  9161.722              40.26562       33.182846        
  9162.321              -18.483894     38.695324        
  9162.922              6.5414724      45.6868          
  9163.521              28.820623      48.42718         
  9164.122              -2.2218654     43.5462          
  9164.722              3.0681589      33.96167         
  9165.322              -2.4656484     29.51226         
  9165.923              -40.27567      28.647247        
  9166.522              -39.879776     28.66594         
  9167.123              -28.69313      28.84173         
  9167.723              -20.068966     28.839281        
  9168.323              -4.0910144     28.988058        
  9168.923              12.9932575     29.679543        
  9169.523              8.628314       29.42806         
  9170.123              -15.312201     28.90077         
  9170.724              -58.20675      28.800604        
  9171.324              1.2804686      29.074574        
  9171.924              43.378956      29.458103        
  9172.524              21.957455      30.248528        
  9173.124              47.864315      30.751019        
  9173.725              80.993805      30.223055        
  9174.324              30.428127      31.011269        
  9174.925              0.9741476      30.684027        
  9175.525              -21.898441     29.511728        
  9176.125              -45.2244       29.206663        
  9176.726              5.478602       29.305122        
  9177.325              28.080463      29.555643        
  9177.926              14.73378       29.933731        
  9178.525              -28.368902     29.99469         
  9179.126              -32.28268      29.956213        
  9179.727              2.59124        30.151945        
  9180.326              -0.6746378     30.176401        
  9180.927              0.0042488156   30.355452        
  9181.526              22.940271      30.533144        
  9182.127              -15.745825     30.426147        
  9182.727              -34.769577     30.56977         
  9183.327              -31.001053     30.504908        
  9183.927              -31.366776     30.240927        
  9184.527              17.38138       30.416636        
  9185.128              13.675551      30.657486        
  9185.728              -15.994172     30.485847        
  9186.328              -26.437073     30.29945         
  9186.928              -68.30903      30.30238         
  9187.528              -59.72603      30.224516        
  9188.128              -28.715908     30.22676         
  9188.729              -14.210753     30.625309        
  9189.329              23.782505      30.92058         
  9189.929              36.059483      30.864004        
  9190.529              12.525019      30.977583        
  9191.129              -14.841376     30.95032         
  9191.7295             0.3727076      30.87024         
  9192.329              17.60176       30.932644        
  9192.93               40.193127      31.028702        
  9193.53               12.298875      31.336935        
  9194.13               -10.8335       31.588799        
  9194.73               -38.90109      31.41542         
  9195.33               -8.058085      31.363136        
  9195.931              23.774372      31.437649        
